References: Micsonai et al. Nucleic Acids Res. 46:W315-22 (2018), Micsonai et al. PNAS 11:E3095-103 (2015)

Header
=======
Title:             sam
Date/time:         5-02-2019 18:20:09
Wavelength range:  200-250 nm	
Scale factor:      10

Estimated secondary structure content (%)
==========================================
Helix1 (regular):        18.3
Helix2 (distorted):       9.4
Anti1 (left-twisted):     1.4
Anti2 (relaxed):         14.8
Anti3 (right-twisted):   14.2
Parallel:                 0.0
Turn:                    19.7
Others:                  22.1
--------------------------------
Helix:                   27.8
Antiparallel:            30.4
Parallel:                 0.0
Turn:                    19.7
Others:                  22.1

Spectral deviation
===================
RMSD:                  0.1001
NRMSD:                0.01957

Fitting results
================
Data units: Delta epsilon

Wavelength (nm) Experimental Fitted Residuals
200 1.9621 2.1806 -0.2185
201 2.0441 1.9075 0.1367
202 1.5294 1.2884 0.241
203 0.585 0.4985 0.0865
204 -0.2085 -0.3378 0.1293
205 -1.165 -1.2358 0.0708
206 -2.1153 -1.9597 -0.1556
207 -2.8109 -2.5167 -0.2942
208 -3.0717 -2.8362 -0.2355
209 -2.8688 -2.7736 -0.0952
210 -2.5775 -2.5625 -0.015
211 -2.2502 -2.2906 0.0404
212 -1.98 -2.1097 0.1297
213 -1.8542 -1.9155 0.0613
214 -1.7515 -1.8723 0.1208
215 -1.6791 -1.8314 0.1523
216 -1.6974 -1.8112 0.1138
217 -1.7777 -1.8642 0.0865
218 -1.8456 -1.8839 0.0383
219 -1.9512 -1.8578 -0.0935
220 -2.0221 -1.9095 -0.1126
221 -2.1032 -1.9716 -0.1316
222 -2.1296 -1.9959 -0.1337
223 -2.1161 -2.0576 -0.0585
224 -2.0737 -2.0364 -0.0372
225 -2.0274 -1.9446 -0.0829
226 -1.921 -1.8926 -0.0284
227 -1.8166 -1.8508 0.0342
228 -1.6783 -1.7178 0.0395
229 -1.5437 -1.5918 0.0481
230 -1.4017 -1.4369 0.0352
231 -1.2508 -1.2637 0.013
232 -1.0674 -1.1274 0.06
233 -0.9182 -0.9487 0.0305
234 -0.7593 -0.8095 0.0502
235 -0.6624 -0.6905 0.0281
236 -0.5607 -0.5665 0.0058
237 -0.4747 -0.4749 0.0003
238 -0.4038 -0.4299 0.0261
239 -0.3056 -0.2974 -0.0081
240 -0.2299 -0.2216 -0.0083
241 -0.2014 -0.1787 -0.0227
242 -0.1208 -0.0868 -0.0339
243 -0.082 -0.0444 -0.0377
244 -0.0399 -0.0581 0.0182
245 -0.0186 -0.0026 -0.016
246 0.0052 -0.0039 0.0091
247 0.012 -0.0813 0.0932
248 -0.0023 -0.0507 0.0484
249 0 0.016 -0.016
250 0 0.0299 -0.0299

Comments
=========
- File input mode.
! CD units are converted to delta epsilon.
! Amplitude is too low. Please, check units and normalization.
- Maximum usable wavelength range: 200-250 nm.
